#%Name: Gehlenite ITFA component 1
#%Empirical formula: Ca2Al2(Fe)SiO7 
#%Mineral group: melilite
#%Xtal system: Tetragonal 
#%Edge: K
#%Sample prep: powder on kapton tape
#%Beamline: ALS 10.3.2, HxV slits = 100x20 um 
#%Det:  I0=N2, Fluorescence mode (Ge solid state 7elts)
#%Ref/notes:  Mineralogical Research Company, San Jose, CA-USA. XRD confirmed.
#%Temp: Room temp (28C)
#%Time&date: 1:36 PM 1/12/2007
#%Provider: Sirine Fakra, Matthew A. Marcus.
#%==================================================
7.0107500E+3 1.0619574E-3
7.0157500E+3 1.5768722E-3
7.0207500E+3 1.4199149E-3
7.0257500E+3 1.5103482E-3
7.0307500E+3 2.2094559E-3
7.0357500E+3 2.0505463E-3
7.0407500E+3 1.8897490E-3
7.0457500E+3 2.4743619E-3
7.0507500E+3 2.0989523E-3
7.0557500E+3 2.9209522E-3
7.0607500E+3 4.0785235E-3
7.0657500E+3 3.4838110E-3
7.0707500E+3 3.6679256E-3
7.0757500E+3 3.7854316E-3
7.0807500E+3 5.9999921E-3
7.0857500E+3 6.7797259E-3
7.0907500E+3 6.3418114E-3
7.0957500E+3 9.4458172E-3
7.0962500E+3 9.6677443E-3
7.0967500E+3 9.1831161E-3
7.0972500E+3 9.5953709E-3
7.0977500E+3 9.5433769E-3
7.0982500E+3 1.0320435E-2
7.0987500E+3 9.9935299E-3
7.0992500E+3 1.0138278E-2
7.0997500E+3 9.9543819E-3
7.1002500E+3 1.0686949E-2
7.1007500E+3 1.0590487E-2
7.1012500E+3 1.1051206E-2
7.1017500E+3 1.1689402E-2
7.1022500E+3 1.2314098E-2
7.1027500E+3 1.3188604E-2
7.1032500E+3 1.3377119E-2
7.1037500E+3 1.3158313E-2
7.1042500E+3 1.4054047E-2
7.1047500E+3 1.4996311E-2
7.1052500E+3 1.5030587E-2
7.1057500E+3 1.6023429E-2
7.1062500E+3 1.6728816E-2
7.1067500E+3 1.7619613E-2
7.1072500E+3 1.9045649E-2
7.1077500E+3 2.0251883E-2
7.1082500E+3 2.2097491E-2
7.1087500E+3 2.4818298E-2
7.1092500E+3 2.8601918E-2
7.1097500E+3 3.3201945E-2
7.1102500E+3 3.9981735E-2
7.1107500E+3 5.5826257E-2
7.1112500E+3 7.3810178E-2
7.1117500E+3 9.5092298E-2
7.1122500E+3 1.3315047E-1
7.1127500E+3 1.8040266E-1
7.1132500E+3 1.9241081E-1
7.1137500E+3 1.5193865E-1
7.1142500E+3 1.1218773E-1
7.1147500E+3 1.0721722E-1
7.1152500E+3 1.1518157E-1
7.1157500E+3 1.3166234E-1
7.1162500E+3 1.5685026E-1
7.1167500E+3 1.8314706E-1
7.1172500E+3 2.2239506E-1
7.1177500E+3 2.5399735E-1
7.1182500E+3 2.9620147E-1
7.1187500E+3 3.3258732E-1
7.1192500E+3 3.6316827E-1
7.1197500E+3 4.0104333E-1
7.1202500E+3 4.3548690E-1
7.1207500E+3 4.7391817E-1
7.1212500E+3 5.1852821E-1
7.1217500E+3 5.5041341E-1
7.1222500E+3 5.8099954E-1
7.1227500E+3 5.9987458E-1
7.1232500E+3 6.4010001E-1
7.1237500E+3 6.6451817E-1
7.1242500E+3 7.0908718E-1
7.1247500E+3 7.6196881E-1
7.1252500E+3 8.0110126E-1
7.1257500E+3 8.5560490E-1
7.1262500E+3 8.9810722E-1
7.1267500E+3 9.1331156E-1
7.1272500E+3 9.2320007E-1
7.1277500E+3 9.3857312E-1
7.1282500E+3 9.4353002E-1
7.1287500E+3 9.5476399E-1
7.1292500E+3 9.8036941E-1
7.1297500E+3 1.0108579E+0
7.1302500E+3 1.0399933E+0
7.1307500E+3 1.0687544E+0
7.1312500E+3 1.0963096E+0
7.1317500E+3 1.1336899E+0
7.1322500E+3 1.1877632E+0
7.1327500E+3 1.2150978E+0
7.1332500E+3 1.2438471E+0
7.1337500E+3 1.2517578E+0
7.1342500E+3 1.2456348E+0
7.1347500E+3 1.2454959E+0
7.1352500E+3 1.2348902E+0
7.1357500E+3 1.2123046E+0
7.1362500E+3 1.2098106E+0
7.1367500E+3 1.1968027E+0
7.1372500E+3 1.1991816E+0
7.1377500E+3 1.2172666E+0
7.1382500E+3 1.2036684E+0
7.1387500E+3 1.2086147E+0
7.1392500E+3 1.2031371E+0
7.1397500E+3 1.2002682E+0
7.1402500E+3 1.1978220E+0
7.1407500E+3 1.1953694E+0
7.1417500E+3 1.1950569E+0
7.1427500E+3 1.1898973E+0
7.1437500E+3 1.1932654E+0
7.1447500E+3 1.1871886E+0
7.1457500E+3 1.1717993E+0
7.1467500E+3 1.1541410E+0
7.1477500E+3 1.1413741E+0
7.1487500E+3 1.1083611E+0
7.1497500E+3 1.0844941E+0
7.1507500E+3 1.0559066E+0
7.1517500E+3 1.0323062E+0
7.1527500E+3 1.0090488E+0
7.1537500E+3 9.9290980E-1
7.1547500E+3 9.8231747E-1
7.1557500E+3 9.6574105E-1
7.1567500E+3 9.4698326E-1
7.1577500E+3 9.2442415E-1
7.1587500E+3 9.3035486E-1
7.1597500E+3 9.3247422E-1
7.1607500E+3 9.2525632E-1
7.1617500E+3 9.3336548E-1
7.1627500E+3 9.2170369E-1
7.1637500E+3 9.1551296E-1
7.1647500E+3 9.1526648E-1
7.1657500E+3 9.0764717E-1
7.1667500E+3 9.0860930E-1
7.1677500E+3 9.1411029E-1
7.1687500E+3 9.2148777E-1
7.1697500E+3 9.2909943E-1
7.1707500E+3 9.2846993E-1
7.1717500E+3 9.3224317E-1
7.1727500E+3 9.4296379E-1
7.1737500E+3 9.5963214E-1
7.1747500E+3 9.5379168E-1
7.1757500E+3 9.5853860E-1
7.1767500E+3 9.6777133E-1
7.1777500E+3 9.6647265E-1
7.1787500E+3 9.7644493E-1
7.1797500E+3 9.8587327E-1
7.1807500E+3 9.8430075E-1
7.1817500E+3 9.8951873E-1
7.1827500E+3 9.9575583E-1
7.1837500E+3 9.9742777E-1
7.1847500E+3 9.9272087E-1
7.1857500E+3 9.9045357E-1
7.1867500E+3 1.0032634E+0
7.1877500E+3 1.0031224E+0
7.1887500E+3 9.9986597E-1
7.1897500E+3 9.9725171E-1
7.1907500E+3 1.0037547E+0
7.1917500E+3 1.0064266E+0
7.1927500E+3 1.0085639E+0
7.1937500E+3 1.0087834E+0
7.1947500E+3 1.0155230E+0
7.1957500E+3 1.0178619E+0
7.1967500E+3 1.0231537E+0
7.1977500E+3 1.0220280E+0
7.1987500E+3 1.0242750E+0
7.1997500E+3 1.0347591E+0
7.2007500E+3 1.0357629E+0
7.2017500E+3 1.0340400E+0
7.2027500E+3 1.0450144E+0
7.2037500E+3 1.0343928E+0
7.2047500E+3 1.0318434E+0
7.2057500E+3 1.0414964E+0
7.2067500E+3 1.0416731E+0
7.2077500E+3 1.0406514E+0
7.2087500E+3 1.0427173E+0
7.2097500E+3 1.0457057E+0
7.2107500E+3 1.0413221E+0
7.2127500E+3 1.0375914E+0
7.2147500E+3 1.0392618E+0
7.2167500E+3 1.0312975E+0
7.2187500E+3 1.0306767E+0
7.2207500E+3 1.0286856E+0
7.2227500E+3 1.0044541E+0
7.2247500E+3 1.0205613E+0
7.2267500E+3 1.0293526E+0
7.2287500E+3 1.0226387E+0
7.2307500E+3 1.0238680E+0
7.2327500E+3 1.0177481E+0
7.2347500E+3 1.0107975E+0
7.2367500E+3 1.0227279E+0
7.2387500E+3 1.0147057E+0
7.2407500E+3 1.0127026E+0
7.2427500E+3 1.0071028E+0
7.2447500E+3 9.9941793E-1
7.2467500E+3 9.9397156E-1
7.2487500E+3 9.8827902E-1
7.2507500E+3 9.9508235E-1
7.2527500E+3 9.8765653E-1
7.2547500E+3 9.8369480E-1
7.2552500E+3 9.7926598E-1
7.2557500E+3 9.9144785E-1
7.2562500E+3 9.8810520E-1
7.2567500E+3 9.9609116E-1
7.2572500E+3 9.8679963E-1
7.2577500E+3 9.8778655E-1
7.2582500E+3 9.7788737E-1
7.2587500E+3 9.9044150E-1
7.2592500E+3 9.9035372E-1
7.2597500E+3 9.8124705E-1
7.2602500E+3 9.8385135E-1
7.2607500E+3 9.7913368E-1
7.2612500E+3 9.8456154E-1
7.2617500E+3 9.7905056E-1
7.2622500E+3 9.8966065E-1
7.2627500E+3 9.9010333E-1
7.2632500E+3 9.9128089E-1
7.2637500E+3 9.8193635E-1
7.2642500E+3 9.9092247E-1
7.2647500E+3 9.9274039E-1
7.2652500E+3 9.8736509E-1
7.2657500E+3 9.8988624E-1
7.2662500E+3 9.8395035E-1
7.2667500E+3 9.9033566E-1
7.2672500E+3 9.8850961E-1
7.2677500E+3 9.9569112E-1
7.2682500E+3 9.9536171E-1
7.2687500E+3 9.9380511E-1
7.2692500E+3 9.9357028E-1
7.2697500E+3 9.9408747E-1
7.2702500E+3 9.9410718E-1
7.2707500E+3 9.8651670E-1
7.2712500E+3 9.9378613E-1
7.2717500E+3 1.0009182E+0
7.2722500E+3 1.0062457E+0
7.2727500E+3 1.0070867E+0
7.2732500E+3 9.9759244E-1
7.2737500E+3 9.9768049E-1
7.2742500E+3 1.0018539E+0
7.2747500E+3 1.0038334E+0
7.2797500E+3 1.0088474E+0
7.2847500E+3 1.0152850E+0
7.2897500E+3 1.0079424E+0
7.2947500E+3 1.0127568E+0
7.2997500E+3 1.0046886E+0
7.3047500E+3 1.0138249E+0
7.3097500E+3 1.0300856E+0
7.3147500E+3 1.0116964E+0
7.3197500E+3 1.0159303E+0
7.3247500E+3 1.0165911E+0
7.3297500E+3 1.0071753E+0
7.3347500E+3 1.0061613E+0
7.3397500E+3 1.0138173E+0
7.3447500E+3 1.0072587E+0
7.3497500E+3 1.0131283E+0
7.3547500E+3 9.9460694E-1
7.3597500E+3 9.8933668E-1
7.3647500E+3 9.9598919E-1
7.3697500E+3 9.9115371E-1
7.3747500E+3 9.9986340E-1
7.3797500E+3 9.9005372E-1
7.3847500E+3 1.0018244E+0
7.3897500E+3 9.8527413E-1
7.3947500E+3 9.9872499E-1
7.3997500E+3 9.9224570E-1
7.4047500E+3 9.9719963E-1
7.4097500E+3 1.0038983E+0
