#%Name: Gehlenite ITFA component 3
#%Empirical formula: Ca2Al2(Fe)SiO7
#%Mineral group: melilite
#%Xtal system: Tetragonal 
#%Edge: K
#%Sample prep: powder on kapton tape
#%Beamline: ALS 10.3.2, HxV slits = 100x20 um 
#%Det:  I0=N2, Fluorescence mode (Ge solid state 7elts)
#%Ref/notes:  Mineralogical Research Company, San Jose, CA-USA. XRD confirmed.
#%Temp: Room temp (28C)
#%Time&date: 1:36 PM 1/12/2007
#%Provider: Sirine Fakra, Matthew A. Marcus.
#%==================================================
7.0107500E+3 3.0573850E-3
7.0157500E+3 2.5723473E-3
7.0207500E+3 2.3798995E-3
7.0257500E+3 2.2094391E-3
7.0307500E+3 2.1880366E-3
7.0357500E+3 2.0179511E-3
7.0407500E+3 2.5779399E-3
7.0457500E+3 2.2867315E-3
7.0507500E+3 2.2572789E-3
7.0557500E+3 2.6209870E-3
7.0607500E+3 3.1112120E-3
7.0657500E+3 2.9615581E-3
7.0707500E+3 3.6865365E-3
7.0757500E+3 4.0671739E-3
7.0807500E+3 5.0012063E-3
7.0857500E+3 5.9912510E-3
7.0907500E+3 7.1420918E-3
7.0957500E+3 8.4440674E-3
7.0962500E+3 8.9695813E-3
7.0967500E+3 9.3491941E-3
7.0972500E+3 9.0004926E-3
7.0977500E+3 9.4405989E-3
7.0982500E+3 1.0156915E-2
7.0987500E+3 1.0015624E-2
7.0992500E+3 1.0105153E-2
7.0997500E+3 1.0779535E-2
7.1002500E+3 1.0780409E-2
7.1007500E+3 1.1366151E-2
7.1012500E+3 1.1604068E-2
7.1017500E+3 1.1853925E-2
7.1022500E+3 1.2405986E-2
7.1027500E+3 1.2600857E-2
7.1032500E+3 1.3702791E-2
7.1037500E+3 1.4010001E-2
7.1042500E+3 1.4169255E-2
7.1047500E+3 1.4948108E-2
7.1052500E+3 1.6107742E-2
7.1057500E+3 1.6631409E-2
7.1062500E+3 1.7310334E-2
7.1067500E+3 1.7936994E-2
7.1072500E+3 1.8861836E-2
7.1077500E+3 2.0270040E-2
7.1082500E+3 2.1397258E-2
7.1087500E+3 2.2786536E-2
7.1092500E+3 2.5471425E-2
7.1097500E+3 2.8982012E-2
7.1102500E+3 3.4075632E-2
7.1107500E+3 4.0837626E-2
7.1112500E+3 4.3252976E-2
7.1117500E+3 4.4620912E-2
7.1122500E+3 4.4822914E-2
7.1127500E+3 4.6842351E-2
7.1132500E+3 5.0226513E-2
7.1137500E+3 5.2803761E-2
7.1142500E+3 5.6490115E-2
7.1147500E+3 6.2664369E-2
7.1152500E+3 7.4529583E-2
7.1157500E+3 8.9203535E-2
7.1162500E+3 1.1416953E-1
7.1167500E+3 1.6520247E-1
7.1172500E+3 2.4047480E-1
7.1177500E+3 3.6826423E-1
7.1182500E+3 5.0778222E-1
7.1187500E+3 6.3809565E-1
7.1192500E+3 7.2909720E-1
7.1197500E+3 7.7583744E-1
7.1202500E+3 7.9774887E-1
7.1207500E+3 8.1675106E-1
7.1212500E+3 8.3482547E-1
7.1217500E+3 8.7375729E-1
7.1222500E+3 9.8174956E-1
7.1227500E+3 1.1386561E+0
7.1232500E+3 1.3405674E+0
7.1237500E+3 1.5147727E+0
7.1242500E+3 1.6456787E+0
7.1247500E+3 1.7182528E+0
7.1252500E+3 1.7256732E+0
7.1257500E+3 1.7023542E+0
7.1262500E+3 1.6812959E+0
7.1267500E+3 1.6492843E+0
7.1272500E+3 1.6011946E+0
7.1277500E+3 1.5382967E+0
7.1282500E+3 1.4454439E+0
7.1287500E+3 1.3349634E+0
7.1292500E+3 1.2191621E+0
7.1297500E+3 1.1357815E+0
7.1302500E+3 1.0729382E+0
7.1307500E+3 1.0267326E+0
7.1312500E+3 9.9510091E-1
7.1317500E+3 9.8391391E-1
7.1322500E+3 9.8714174E-1
7.1327500E+3 9.8401337E-1
7.1332500E+3 9.6705960E-1
7.1337500E+3 9.4785453E-1
7.1342500E+3 9.3433777E-1
7.1347500E+3 9.2015294E-1
7.1352500E+3 9.1168289E-1
7.1357500E+3 9.0494767E-1
7.1362500E+3 9.0461465E-1
7.1367500E+3 9.1391317E-1
7.1372500E+3 9.2664475E-1
7.1377500E+3 9.4048747E-1
7.1382500E+3 9.6171326E-1
7.1387500E+3 9.7199160E-1
7.1392500E+3 9.6981338E-1
7.1397500E+3 9.7200001E-1
7.1402500E+3 9.7863810E-1
7.1407500E+3 9.8188048E-1
7.1417500E+3 9.8190211E-1
7.1427500E+3 9.6700826E-1
7.1437500E+3 9.3121946E-1
7.1447500E+3 8.9731319E-1
7.1457500E+3 8.6134025E-1
7.1467500E+3 8.3135582E-1
7.1477500E+3 7.9868263E-1
7.1487500E+3 7.6967142E-1
7.1497500E+3 7.5273289E-1
7.1507500E+3 7.5224043E-1
7.1517500E+3 7.6185178E-1
7.1527500E+3 7.8025333E-1
7.1537500E+3 8.0981962E-1
7.1547500E+3 8.4153539E-1
7.1557500E+3 8.7532836E-1
7.1567500E+3 9.0947265E-1
7.1577500E+3 9.4460763E-1
7.1587500E+3 9.7931730E-1
7.1597500E+3 1.0114177E+0
7.1607500E+3 1.0388261E+0
7.1617500E+3 1.0630623E+0
7.1627500E+3 1.0823418E+0
7.1637500E+3 1.0971280E+0
7.1647500E+3 1.1040054E+0
7.1657500E+3 1.1010643E+0
7.1667500E+3 1.1021310E+0
7.1677500E+3 1.1006801E+0
7.1687500E+3 1.0921333E+0
7.1697500E+3 1.0871771E+0
7.1707500E+3 1.0749489E+0
7.1717500E+3 1.0682038E+0
7.1727500E+3 1.0574673E+0
7.1737500E+3 1.0430628E+0
7.1747500E+3 1.0390527E+0
7.1757500E+3 1.0270296E+0
7.1767500E+3 1.0124252E+0
7.1777500E+3 1.0030103E+0
7.1787500E+3 9.9609953E-1
7.1797500E+3 9.9273545E-1
7.1807500E+3 9.9910435E-1
7.1817500E+3 1.0020177E+0
7.1827500E+3 1.0086795E+0
7.1837500E+3 1.0193933E+0
7.1847500E+3 1.0225372E+0
7.1857500E+3 1.0247565E+0
7.1867500E+3 1.0261232E+0
7.1877500E+3 1.0189651E+0
7.1887500E+3 1.0151136E+0
7.1897500E+3 1.0007797E+0
7.1907500E+3 9.8050065E-1
7.1917500E+3 9.6837263E-1
7.1927500E+3 9.6123865E-1
7.1937500E+3 9.5475922E-1
7.1947500E+3 9.4944345E-1
7.1957500E+3 9.4352845E-1
7.1967500E+3 9.4086818E-1
7.1977500E+3 9.4536475E-1
7.1987500E+3 9.4865083E-1
7.1997500E+3 9.5174110E-1
7.2007500E+3 9.5383884E-1
7.2017500E+3 9.5741853E-1
7.2027500E+3 9.5790007E-1
7.2037500E+3 9.6415551E-1
7.2047500E+3 9.6701954E-1
7.2057500E+3 9.7025985E-1
7.2067500E+3 9.7467198E-1
7.2077500E+3 9.7375480E-1
7.2087500E+3 9.6867408E-1
7.2097500E+3 9.6877435E-1
7.2107500E+3 9.6750093E-1
7.2127500E+3 9.6755486E-1
7.2147500E+3 9.6233692E-1
7.2167500E+3 9.7209661E-1
7.2187500E+3 9.8305174E-1
7.2207500E+3 9.9070739E-1
7.2227500E+3 1.0010870E+0
7.2247500E+3 1.0024633E+0
7.2267500E+3 9.9772915E-1
7.2287500E+3 1.0084744E+0
7.2307500E+3 1.0091375E+0
7.2327500E+3 1.0126891E+0
7.2347500E+3 1.0104041E+0
7.2367500E+3 1.0117693E+0
7.2387500E+3 1.0106480E+0
7.2407500E+3 1.0164038E+0
7.2427500E+3 1.0215100E+0
7.2447500E+3 1.0260531E+0
7.2467500E+3 1.0202871E+0
7.2487500E+3 1.0221754E+0
7.2507500E+3 1.0139585E+0
7.2527500E+3 1.0091254E+0
7.2547500E+3 1.0076261E+0
7.2552500E+3 1.0103139E+0
7.2557500E+3 1.0095542E+0
7.2562500E+3 1.0116394E+0
7.2567500E+3 1.0079256E+0
7.2572500E+3 1.0112052E+0
7.2577500E+3 1.0093681E+0
7.2582500E+3 1.0084105E+0
7.2587500E+3 1.0096677E+0
7.2592500E+3 1.0095749E+0
7.2597500E+3 1.0055788E+0
7.2602500E+3 1.0050251E+0
7.2607500E+3 1.0062804E+0
7.2612500E+3 1.0088755E+0
7.2617500E+3 1.0086953E+0
7.2622500E+3 1.0053418E+0
7.2627500E+3 9.9976931E-1
7.2632500E+3 9.9564741E-1
7.2637500E+3 9.9206452E-1
7.2642500E+3 9.9872376E-1
7.2647500E+3 9.9534009E-1
7.2652500E+3 9.9411133E-1
7.2657500E+3 9.9801200E-1
7.2662500E+3 1.0003792E+0
7.2667500E+3 1.0014556E+0
7.2672500E+3 9.9937590E-1
7.2677500E+3 9.9086680E-1
7.2682500E+3 9.9031536E-1
7.2687500E+3 9.9185921E-1
7.2692500E+3 9.8987120E-1
7.2697500E+3 9.9286237E-1
7.2702500E+3 9.9689317E-1
7.2707500E+3 9.9786363E-1
7.2712500E+3 9.9685473E-1
7.2717500E+3 9.9163427E-1
7.2722500E+3 9.9669884E-1
7.2727500E+3 9.8998698E-1
7.2732500E+3 9.9242095E-1
7.2737500E+3 9.9800872E-1
7.2742500E+3 9.9920946E-1
7.2747500E+3 1.0000247E+0
7.2797500E+3 9.9733754E-1
7.2847500E+3 1.0022971E+0
7.2897500E+3 1.0063972E+0
7.2947500E+3 1.0135112E+0
7.2997500E+3 1.0045086E+0
7.3047500E+3 9.9780086E-1
7.3097500E+3 9.8536065E-1
7.3147500E+3 9.9010899E-1
7.3197500E+3 9.9593388E-1
7.3247500E+3 1.0034782E+0
7.3297500E+3 1.0109516E+0
7.3347500E+3 1.0075750E+0
7.3397500E+3 1.0095125E+0
7.3447500E+3 1.0114392E+0
7.3497500E+3 1.0102082E+0
7.3547500E+3 1.0118323E+0
7.3597500E+3 1.0080148E+0
7.3647500E+3 1.0011962E+0
7.3697500E+3 9.9706643E-1
7.3747500E+3 9.9427488E-1
7.3797500E+3 9.9052289E-1
7.3847500E+3 9.9091967E-1
7.3897500E+3 9.9263001E-1
7.3947500E+3 9.9817063E-1
7.3997500E+3 1.0049198E+0
7.4047500E+3 1.0051897E+0
7.4097500E+3 1.0038597E+0
