#%Name: Gehlenite ITFA component 0
#%Empirical formula: Ca2Al2(Fe)SiO7
#%Mineral group: melilite
#%Xtal system: Tetragonal 
#%Edge: K
#%Sample prep: powder on kapton tape
#%Beamline: ALS 10.3.2, HxV slits = 100x20 um 
#%Det:  I0=N2, Fluorescence mode (Ge solid state 7elts)
#%Ref/notes:  Mineralogical Research Company, San Jose, CA-USA. XRD confirmed.
#%Temp: Room temp (28C)
#%Time&date: 1:36 PM 1/12/2007
#%Provider: Sirine Fakra, Matthew A. Marcus.
#%==================================================
7.0107500E+3 1.5751283E-3
7.0157500E+3 1.7630086E-3
7.0207500E+3 1.8783459E-3
7.0257500E+3 2.1313653E-3
7.0307500E+3 2.4383053E-3
7.0357500E+3 2.1433776E-3
7.0407500E+3 2.2401421E-3
7.0457500E+3 2.5797180E-3
7.0507500E+3 2.5919407E-3
7.0557500E+3 2.9463397E-3
7.0607500E+3 3.1644343E-3
7.0657500E+3 3.7012071E-3
7.0707500E+3 3.9623164E-3
7.0757500E+3 4.4185015E-3
7.0807500E+3 5.3464562E-3
7.0857500E+3 5.9629387E-3
7.0907500E+3 7.4972929E-3
7.0957500E+3 9.0421038E-3
7.0962500E+3 9.1170131E-3
7.0967500E+3 9.4455728E-3
7.0972500E+3 9.6982174E-3
7.0977500E+3 1.0056725E-2
7.0982500E+3 9.9077160E-3
7.0987500E+3 1.0601140E-2
7.0992500E+3 1.0716702E-2
7.0997500E+3 1.0698197E-2
7.1002500E+3 1.1204231E-2
7.1007500E+3 1.1676617E-2
7.1012500E+3 1.2324808E-2
7.1017500E+3 1.2194136E-2
7.1022500E+3 1.2754380E-2
7.1027500E+3 1.3304198E-2
7.1032500E+3 1.3574830E-2
7.1037500E+3 1.4619743E-2
7.1042500E+3 1.4915169E-2
7.1047500E+3 1.5162664E-2
7.1052500E+3 1.5778764E-2
7.1057500E+3 1.6564287E-2
7.1062500E+3 1.7321387E-2
7.1067500E+3 1.8098069E-2
7.1072500E+3 1.8630854E-2
7.1077500E+3 1.9975086E-2
7.1082500E+3 2.1305784E-2
7.1087500E+3 2.3081862E-2
7.1092500E+3 2.5115385E-2
7.1097500E+3 2.8434833E-2
7.1102500E+3 3.5631116E-2
7.1107500E+3 4.2578165E-2
7.1112500E+3 4.6086266E-2
7.1117500E+3 4.5857190E-2
7.1122500E+3 4.5032922E-2
7.1127500E+3 4.4997832E-2
7.1132500E+3 4.6016295E-2
7.1137500E+3 4.7244507E-2
7.1142500E+3 4.9381204E-2
7.1147500E+3 5.4044870E-2
7.1152500E+3 6.0740602E-2
7.1157500E+3 7.3230240E-2
7.1162500E+3 8.9027706E-2
7.1167500E+3 1.1962907E-1
7.1172500E+3 1.6502162E-1
7.1177500E+3 2.3286609E-1
7.1182500E+3 3.1986974E-1
7.1187500E+3 4.1051149E-1
7.1192500E+3 4.9595131E-1
7.1197500E+3 5.3208827E-1
7.1202500E+3 5.3943744E-1
7.1207500E+3 5.6273912E-1
7.1212500E+3 6.4583085E-1
7.1217500E+3 7.7636391E-1
7.1222500E+3 9.5731284E-1
7.1227500E+3 1.1811256E+0
7.1232500E+3 1.4559601E+0
7.1237500E+3 1.7126279E+0
7.1242500E+3 1.8735253E+0
7.1247500E+3 1.9506516E+0
7.1252500E+3 1.9576684E+0
7.1257500E+3 1.9232269E+0
7.1262500E+3 1.8560455E+0
7.1267500E+3 1.7484537E+0
7.1272500E+3 1.6086484E+0
7.1277500E+3 1.4896070E+0
7.1282500E+3 1.4019167E+0
7.1287500E+3 1.3225970E+0
7.1292500E+3 1.2750530E+0
7.1297500E+3 1.2334314E+0
7.1302500E+3 1.1969472E+0
7.1307500E+3 1.1543062E+0
7.1312500E+3 1.1111036E+0
7.1317500E+3 1.0768265E+0
7.1322500E+3 1.0362546E+0
7.1327500E+3 9.9706929E-1
7.1332500E+3 9.5951680E-1
7.1337500E+3 9.3952328E-1
7.1342500E+3 9.3308854E-1
7.1347500E+3 9.4131123E-1
7.1352500E+3 9.6594767E-1
7.1357500E+3 9.9517178E-1
7.1362500E+3 1.0198089E+0
7.1367500E+3 1.0388741E+0
7.1372500E+3 1.0566914E+0
7.1377500E+3 1.0731817E+0
7.1382500E+3 1.0746763E+0
7.1387500E+3 1.0657009E+0
7.1392500E+3 1.0532006E+0
7.1397500E+3 1.0307383E+0
7.1402500E+3 1.0018498E+0
7.1407500E+3 9.7516620E-1
7.1417500E+3 9.2294910E-1
7.1427500E+3 8.8644332E-1
7.1437500E+3 8.5919998E-1
7.1447500E+3 8.2947991E-1
7.1457500E+3 8.0545454E-1
7.1467500E+3 7.7511856E-1
7.1477500E+3 7.4670634E-1
7.1487500E+3 7.2474971E-1
7.1497500E+3 7.1662192E-1
7.1507500E+3 7.2249932E-1
7.1517500E+3 7.3794929E-1
7.1527500E+3 7.5767872E-1
7.1537500E+3 7.8277156E-1
7.1547500E+3 8.0798441E-1
7.1557500E+3 8.3731786E-1
7.1567500E+3 8.6730304E-1
7.1577500E+3 8.9705611E-1
7.1587500E+3 9.2831796E-1
7.1597500E+3 9.6299018E-1
7.1607500E+3 1.0038541E+0
7.1617500E+3 1.0449347E+0
7.1627500E+3 1.0826869E+0
7.1637500E+3 1.1127902E+0
7.1647500E+3 1.1383868E+0
7.1657500E+3 1.1582737E+0
7.1667500E+3 1.1645132E+0
7.1677500E+3 1.1642808E+0
7.1687500E+3 1.1568761E+0
7.1697500E+3 1.1489971E+0
7.1707500E+3 1.1438045E+0
7.1717500E+3 1.1290234E+0
7.1727500E+3 1.1141671E+0
7.1737500E+3 1.0934244E+0
7.1747500E+3 1.0780773E+0
7.1757500E+3 1.0679992E+0
7.1767500E+3 1.0602900E+0
7.1777500E+3 1.0615896E+0
7.1787500E+3 1.0625385E+0
7.1797500E+3 1.0609538E+0
7.1807500E+3 1.0564348E+0
7.1817500E+3 1.0444972E+0
7.1827500E+3 1.0299278E+0
7.1837500E+3 1.0171392E+0
7.1847500E+3 1.0095567E+0
7.1857500E+3 9.9957659E-1
7.1867500E+3 9.8683694E-1
7.1877500E+3 9.7010522E-1
7.1887500E+3 9.5349717E-1
7.1897500E+3 9.3670627E-1
7.1907500E+3 9.2554691E-1
7.1917500E+3 9.1775873E-1
7.1927500E+3 9.1602991E-1
7.1937500E+3 9.1898950E-1
7.1947500E+3 9.1648610E-1
7.1957500E+3 9.2074795E-1
7.1967500E+3 9.2430283E-1
7.1977500E+3 9.2351152E-1
7.1987500E+3 9.2991180E-1
7.1997500E+3 9.3496625E-1
7.2007500E+3 9.3791378E-1
7.2017500E+3 9.4511251E-1
7.2027500E+3 9.4902983E-1
7.2037500E+3 9.5725447E-1
7.2047500E+3 9.6267530E-1
7.2057500E+3 9.6781290E-1
7.2067500E+3 9.7578660E-1
7.2077500E+3 9.8474116E-1
7.2087500E+3 9.8959803E-1
7.2097500E+3 9.9160748E-1
7.2107500E+3 9.9958080E-1
7.2127500E+3 1.0043500E+0
7.2147500E+3 1.0127589E+0
7.2167500E+3 1.0126327E+0
7.2187500E+3 1.0135510E+0
7.2207500E+3 1.0044066E+0
7.2227500E+3 9.9647282E-1
7.2247500E+3 9.9063080E-1
7.2267500E+3 9.8619143E-1
7.2287500E+3 9.8641915E-1
7.2307500E+3 9.8775051E-1
7.2327500E+3 9.9032086E-1
7.2347500E+3 9.9644195E-1
7.2367500E+3 9.9776598E-1
7.2387500E+3 1.0007771E+0
7.2407500E+3 1.0036844E+0
7.2427500E+3 1.0123158E+0
7.2447500E+3 1.0153554E+0
7.2467500E+3 1.0198203E+0
7.2487500E+3 1.0219023E+0
7.2507500E+3 1.0222645E+0
7.2527500E+3 1.0244228E+0
7.2547500E+3 1.0211231E+0
7.2552500E+3 1.0213360E+0
7.2557500E+3 1.0219567E+0
7.2562500E+3 1.0198577E+0
7.2567500E+3 1.0223780E+0
7.2572500E+3 1.0199218E+0
7.2577500E+3 1.0146842E+0
7.2582500E+3 1.0181932E+0
7.2587500E+3 1.0159382E+0
7.2592500E+3 1.0189026E+0
7.2597500E+3 1.0172991E+0
7.2602500E+3 1.0175611E+0
7.2607500E+3 1.0163954E+0
7.2612500E+3 1.0136716E+0
7.2617500E+3 1.0136863E+0
7.2622500E+3 1.0138987E+0
7.2627500E+3 1.0097394E+0
7.2632500E+3 1.0080311E+0
7.2637500E+3 1.0099737E+0
7.2642500E+3 1.0109535E+0
7.2647500E+3 1.0115840E+0
7.2652500E+3 1.0117639E+0
7.2657500E+3 1.0128325E+0
7.2662500E+3 1.0108052E+0
7.2667500E+3 1.0115237E+0
7.2672500E+3 1.0130284E+0
7.2677500E+3 1.0161369E+0
7.2682500E+3 1.0125983E+0
7.2687500E+3 1.0128930E+0
7.2692500E+3 1.0149778E+0
7.2697500E+3 1.0125921E+0
7.2702500E+3 1.0145282E+0
7.2707500E+3 1.0168785E+0
7.2712500E+3 1.0170958E+0
7.2717500E+3 1.0137201E+0
7.2722500E+3 1.0126497E+0
7.2727500E+3 1.0133411E+0
7.2732500E+3 1.0126169E+0
7.2737500E+3 1.0125752E+0
7.2742500E+3 1.0111112E+0
7.2747500E+3 1.0055541E+0
7.2797500E+3 9.8996465E-1
7.2847500E+3 9.8418162E-1
7.2897500E+3 9.8620881E-1
7.2947500E+3 9.9105665E-1
7.2997500E+3 9.9480796E-1
7.3047500E+3 9.9427411E-1
7.3097500E+3 9.8659748E-1
7.3147500E+3 9.8680521E-1
7.3197500E+3 9.9154008E-1
7.3247500E+3 9.9303472E-1
7.3297500E+3 1.0052156E+0
7.3347500E+3 1.0041311E+0
7.3397500E+3 1.0101149E+0
7.3447500E+3 1.0095830E+0
7.3497500E+3 1.0061249E+0
7.3547500E+3 1.0089223E+0
7.3597500E+3 1.0076517E+0
7.3647500E+3 1.0055123E+0
7.3697500E+3 9.9737341E-1
7.3747500E+3 9.9264595E-1
7.3797500E+3 9.8496887E-1
7.3847500E+3 9.8544847E-1
7.3897500E+3 9.8411128E-1
7.3947500E+3 9.8517187E-1
7.3997500E+3 9.9171945E-1
7.4047500E+3 9.8668323E-1
7.4097500E+3 9.8794396E-1
