#%Name: Ilmenite ITFA component 1
#%Empirical formula: Fe2+TiO3 / Webmineral
#%Mineral group: oxide
#%Xtal system: hexagonal   
#%Edge: K
#%Sample prep: powder on kapton tape
#%Beamline: ALS 10.3.2, HxV slits = 60x20 um
#%Det:  I0=N2, Fluorescence mode (Ge solid state 7elts)
#%Ref/notes:  Mineralogical Research Company, San Jose, CA-USA. XRD confirmed.
#%Temp: Room temp (28C)
#%Time&date: 3:31 AM 1/14/2007
#%Provider: Sirine Fakra, Matthew A. Marcus.
#%============================================================
7.0105192E+3 1.8923577E-3
7.0155189E+3 1.7708597E-3
7.0205185E+3 2.1365720E-3
7.0255182E+3 2.0439474E-3
7.0305178E+3 2.0644964E-3
7.0355175E+3 2.2734623E-3
7.0405172E+3 2.3688584E-3
7.0455168E+3 2.5717780E-3
7.0505165E+3 2.8621866E-3
7.0555161E+3 3.0934537E-3
7.0605158E+3 3.2274726E-3
7.0655154E+3 3.7527248E-3
7.0705151E+3 4.0290480E-3
7.0755147E+3 4.5724216E-3
7.0805144E+3 5.3008070E-3
7.0855140E+3 6.3973588E-3
7.0905137E+3 7.3440402E-3
7.0955133E+3 9.2967366E-3
7.0960133E+3 9.3926248E-3
7.0965133E+3 9.4720979E-3
7.0970132E+3 1.0055830E-2
7.0975132E+3 1.0169092E-2
7.0980132E+3 1.0203576E-2
7.0985131E+3 1.0711417E-2
7.0990131E+3 1.0630260E-2
7.0995131E+3 1.1171976E-2
7.1000130E+3 1.1469345E-2
7.1005130E+3 1.1447733E-2
7.1010130E+3 1.1871497E-2
7.1015129E+3 1.2344879E-2
7.1020129E+3 1.2705920E-2
7.1025129E+3 1.3046528E-2
7.1030128E+3 1.4026314E-2
7.1035128E+3 1.4308502E-2
7.1040128E+3 1.5099254E-2
7.1045127E+3 1.5641666E-2
7.1050127E+3 1.6399499E-2
7.1055126E+3 1.7028845E-2
7.1060126E+3 1.7790696E-2
7.1065126E+3 1.9199873E-2
7.1070125E+3 1.9762870E-2
7.1075125E+3 2.1181547E-2
7.1080125E+3 2.2518741E-2
7.1085124E+3 2.4284103E-2
7.1090124E+3 2.6976445E-2
7.1095124E+3 3.1130221E-2
7.1100123E+3 3.7587634E-2
7.1105123E+3 4.9425534E-2
7.1110123E+3 6.3602352E-2
7.1115122E+3 7.2829906E-2
7.1120122E+3 8.4101330E-2
7.1125122E+3 9.7286184E-2
7.1130121E+3 1.0009209E-1
7.1135121E+3 9.5548761E-2
7.1140121E+3 9.5756450E-2
7.1145120E+3 1.0090198E-1
7.1150120E+3 1.0784924E-1
7.1155119E+3 1.1777263E-1
7.1160119E+3 1.3320098E-1
7.1165119E+3 1.5721846E-1
7.1170118E+3 1.8634140E-1
7.1175118E+3 2.1623217E-1
7.1180118E+3 2.5703041E-1
7.1185117E+3 3.1390249E-1
7.1190117E+3 3.9212400E-1
7.1195117E+3 4.7079269E-1
7.1200116E+3 5.4275508E-1
7.1205116E+3 6.0798813E-1
7.1210116E+3 6.6402346E-1
7.1215115E+3 7.1801574E-1
7.1220115E+3 7.7068886E-1
7.1225115E+3 8.4173315E-1
7.1230114E+3 9.0611239E-1
7.1235114E+3 9.6785420E-1
7.1240114E+3 1.0028082E+0
7.1245113E+3 1.0265756E+0
7.1250113E+3 1.0511288E+0
7.1255113E+3 1.0635690E+0
7.1260112E+3 1.0830378E+0
7.1265112E+3 1.1178910E+0
7.1270111E+3 1.1732976E+0
7.1275111E+3 1.2360339E+0
7.1280111E+3 1.2931793E+0
7.1285110E+3 1.3401181E+0
7.1290110E+3 1.3715821E+0
7.1295110E+3 1.3827518E+0
7.1300109E+3 1.3558724E+0
7.1305109E+3 1.3302694E+0
7.1310109E+3 1.2990891E+0
7.1315108E+3 1.2546183E+0
7.1320108E+3 1.2172093E+0
7.1325108E+3 1.1855765E+0
7.1330107E+3 1.1650074E+0
7.1335107E+3 1.1424459E+0
7.1340107E+3 1.1292441E+0
7.1345106E+3 1.1128830E+0
7.1350106E+3 1.1021893E+0
7.1355106E+3 1.0944413E+0
7.1360105E+3 1.0876106E+0
7.1365105E+3 1.0782821E+0
7.1370104E+3 1.0698907E+0
7.1375104E+3 1.0555258E+0
7.1380104E+3 1.0449857E+0
7.1385103E+3 1.0286890E+0
7.1390103E+3 1.0218907E+0
7.1395103E+3 1.0143366E+0
7.1400102E+3 1.0131466E+0
7.1405102E+3 1.0037697E+0
7.1415101E+3 1.0133797E+0
7.1425101E+3 1.0217136E+0
7.1435100E+3 1.0181995E+0
7.1445099E+3 1.0092184E+0
7.1455099E+3 9.9390903E-1
7.1465098E+3 9.7348593E-1
7.1475097E+3 9.5352905E-1
7.1485096E+3 9.3610387E-1
7.1495096E+3 9.1949296E-1
7.1505095E+3 9.0620062E-1
7.1515094E+3 8.9626329E-1
7.1525094E+3 8.9517730E-1
7.1535093E+3 8.8671798E-1
7.1545092E+3 8.8394984E-1
7.1555092E+3 8.8144289E-1
7.1565091E+3 8.7210328E-1
7.1575090E+3 8.7116793E-1
7.1585089E+3 8.6946854E-1
7.1595089E+3 8.7801873E-1
7.1605088E+3 8.8141564E-1
7.1615087E+3 8.9258495E-1
7.1625087E+3 8.9652602E-1
7.1635086E+3 8.9927914E-1
7.1645085E+3 9.0690036E-1
7.1655085E+3 9.1801187E-1
7.1665084E+3 9.3135993E-1
7.1675083E+3 9.3996069E-1
7.1685082E+3 9.4953306E-1
7.1695082E+3 9.6142437E-1
7.1705081E+3 9.7733810E-1
7.1715080E+3 9.8253262E-1
7.1725080E+3 9.9565664E-1
7.1735079E+3 1.0046763E+0
7.1745078E+3 1.0039504E+0
7.1755077E+3 1.0164096E+0
7.1765077E+3 1.0213601E+0
7.1775076E+3 1.0363461E+0
7.1785075E+3 1.0460298E+0
7.1795075E+3 1.0556741E+0
7.1805074E+3 1.0598385E+0
7.1815073E+3 1.0603769E+0
7.1825073E+3 1.0591022E+0
7.1835072E+3 1.0617435E+0
7.1845071E+3 1.0567547E+0
7.1855070E+3 1.0455455E+0
7.1865070E+3 1.0510137E+0
7.1875069E+3 1.0549260E+0
7.1885068E+3 1.0524550E+0
7.1895068E+3 1.0436465E+0
7.1905067E+3 1.0330012E+0
7.1915066E+3 1.0248813E+0
7.1925066E+3 1.0240664E+0
7.1935065E+3 1.0188023E+0
7.1945064E+3 1.0105692E+0
7.1955063E+3 1.0018510E+0
7.1965063E+3 9.9663608E-1
7.1975062E+3 9.8895685E-1
7.1985061E+3 9.8552690E-1
7.1995061E+3 9.7736602E-1
7.2005060E+3 9.7342333E-1
7.2015059E+3 9.6557524E-1
7.2025058E+3 9.6061191E-1
7.2035058E+3 9.5723205E-1
7.2045057E+3 9.5472978E-1
7.2055056E+3 9.5173054E-1
7.2065056E+3 9.5079803E-1
7.2075055E+3 9.5260017E-1
7.2085054E+3 9.5734037E-1
7.2095054E+3 9.6121958E-1
7.2105053E+3 9.5988196E-1
7.2125051E+3 9.6823804E-1
7.2145050E+3 9.7425267E-1
7.2165049E+3 9.7877876E-1
7.2185047E+3 9.8698731E-1
7.2205046E+3 9.9376485E-1
7.2225044E+3 9.9994979E-1
7.2245043E+3 1.0072312E+0
7.2265042E+3 1.0083937E+0
7.2285040E+3 1.0009999E+0
7.2305039E+3 1.0000399E+0
7.2325037E+3 1.0013176E+0
7.2345036E+3 9.9332882E-1
7.2365034E+3 9.8051137E-1
7.2385033E+3 9.7078422E-1
7.2405032E+3 9.6277572E-1
7.2425030E+3 9.5874229E-1
7.2445029E+3 9.5331426E-1
7.2465027E+3 9.5605752E-1
7.2485026E+3 9.6354642E-1
7.2505025E+3 9.6451486E-1
7.2525023E+3 9.7471021E-1
7.2545022E+3 9.8347305E-1
7.2550021E+3 9.8424138E-1
7.2555021E+3 9.8883098E-1
7.2560021E+3 9.8910907E-1
7.2565020E+3 9.8951261E-1
7.2570020E+3 9.9693448E-1
7.2575020E+3 9.9818826E-1
7.2580019E+3 9.9419470E-1
7.2585019E+3 9.9793609E-1
7.2590018E+3 1.0093327E+0
7.2595018E+3 1.0133192E+0
7.2600018E+3 1.0077896E+0
7.2605017E+3 1.0051069E+0
7.2610017E+3 1.0153711E+0
7.2615017E+3 1.0130502E+0
7.2620016E+3 1.0144061E+0
7.2625016E+3 1.0131171E+0
7.2630016E+3 1.0197426E+0
7.2635015E+3 1.0088537E+0
7.2640015E+3 1.0154903E+0
7.2645015E+3 1.0255234E+0
7.2650014E+3 1.0197652E+0
7.2655014E+3 1.0202736E+0
7.2660013E+3 1.0202630E+0
7.2665013E+3 1.0173622E+0
7.2670013E+3 1.0136838E+0
7.2675012E+3 1.0206597E+0
7.2680012E+3 1.0236762E+0
7.2685012E+3 1.0188680E+0
7.2690011E+3 1.0222336E+0
7.2695011E+3 1.0221431E+0
7.2700011E+3 1.0249877E+0
7.2705010E+3 1.0272171E+0
7.2710010E+3 1.0267662E+0
7.2715010E+3 1.0271619E+0
7.2720009E+3 1.0265984E+0
7.2725009E+3 1.0287588E+0
7.2730008E+3 1.0251451E+0
7.2735008E+3 1.0247960E+0
7.2740008E+3 1.0259403E+0
7.2745007E+3 1.0234524E+0
7.2795004E+3 1.0155723E+0
7.2845000E+3 1.0033644E+0
7.2894997E+3 9.9182082E-1
7.2944993E+3 9.8280119E-1
7.2994990E+3 9.7632327E-1
7.3044986E+3 9.8258305E-1
7.3094982E+3 9.7727525E-1
7.3144979E+3 9.8991261E-1
7.3194975E+3 9.9732554E-1
7.3244972E+3 1.0077035E+0
7.3294968E+3 1.0051524E+0
7.3344964E+3 1.0029287E+0
7.3394961E+3 9.9661777E-1
7.3444957E+3 9.9734054E-1
7.3494954E+3 9.9035514E-1
7.3544950E+3 9.8256208E-1
7.3594947E+3 9.8205140E-1
7.3644943E+3 9.9868163E-1
7.3694939E+3 1.0052283E+0
7.3744936E+3 1.0020375E+0
7.3794932E+3 9.9320209E-1
7.3844928E+3 9.9513708E-1
7.3894925E+3 9.9868683E-1
7.3944921E+3 9.9746045E-1
7.3994918E+3 9.9611257E-1
7.4044914E+3 9.9876542E-1
7.4094910E+3 9.9712583E-1
