#%Name: Ilmenite ITFA component 0
#%Empirical formula: Fe2+TiO3 / Webmineral
#%Mineral group: oxide
#%Xtal system: hexagonal   
#%Edge: K
#%Sample prep: powder on kapton tape
#%Beamline: ALS 10.3.2, HxV slits = 60x20 um
#%Det:  I0=N2, Fluorescence mode (Ge solid state 7elts)
#%Ref/notes:  Mineralogical Research Company, San Jose, CA-USA. XRD confirmed.
#%Temp: Room temp (28C)
#%Time&date: 3:31 AM 1/14/2007
#%Provider: Sirine Fakra, Matthew A. Marcus.
#%============================================================
7.0105192E+3 1.4875764E-3
7.0155189E+3 1.5591076E-3
7.0205185E+3 1.5766889E-3
7.0255182E+3 1.6969992E-3
7.0305178E+3 1.6658990E-3
7.0355175E+3 1.7514963E-3
7.0405172E+3 1.7060135E-3
7.0455168E+3 1.9636222E-3
7.0505165E+3 2.0294774E-3
7.0555161E+3 2.2233269E-3
7.0605158E+3 2.4573044E-3
7.0655154E+3 2.7322312E-3
7.0705151E+3 3.0371714E-3
7.0755147E+3 3.5139347E-3
7.0805144E+3 4.1158755E-3
7.0855140E+3 4.8154341E-3
7.0905137E+3 5.8493410E-3
7.0955133E+3 7.3335422E-3
7.0960133E+3 7.5926104E-3
7.0965133E+3 7.7560025E-3
7.0970132E+3 7.7055167E-3
7.0975132E+3 8.0410332E-3
7.0980132E+3 8.3491107E-3
7.0985131E+3 8.3537925E-3
7.0990131E+3 8.5664141E-3
7.0995131E+3 8.9980759E-3
7.1000130E+3 9.2957210E-3
7.1005130E+3 9.3638545E-3
7.1010130E+3 9.7847943E-3
7.1015129E+3 1.0329320E-2
7.1020129E+3 1.0564191E-2
7.1025129E+3 1.0836215E-2
7.1030128E+3 1.1275883E-2
7.1035128E+3 1.1660625E-2
7.1040128E+3 1.2047569E-2
7.1045127E+3 1.2507668E-2
7.1050127E+3 1.3090985E-2
7.1055126E+3 1.3794234E-2
7.1060126E+3 1.4440107E-2
7.1065126E+3 1.5086509E-2
7.1070125E+3 1.5986179E-2
7.1075125E+3 1.7010966E-2
7.1080125E+3 1.8239710E-2
7.1085124E+3 1.9618564E-2
7.1090124E+3 2.1512073E-2
7.1095124E+3 2.3840868E-2
7.1100123E+3 2.7511999E-2
7.1105123E+3 3.4260072E-2
7.1110123E+3 4.3332534E-2
7.1115122E+3 5.4604382E-2
7.1120122E+3 7.3017765E-2
7.1125122E+3 9.4796094E-2
7.1130121E+3 1.0507918E-1
7.1135121E+3 9.9956246E-2
7.1140121E+3 9.1442173E-2
7.1145120E+3 8.7473567E-2
7.1150120E+3 8.7772532E-2
7.1155119E+3 9.1630986E-2
7.1160119E+3 9.8705983E-2
7.1165119E+3 1.1068198E-1
7.1170118E+3 1.2557516E-1
7.1175118E+3 1.4657054E-1
7.1180118E+3 1.7436589E-1
7.1185117E+3 2.0940093E-1
7.1190117E+3 2.5800326E-1
7.1195117E+3 3.1192688E-1
7.1200116E+3 3.6822497E-1
7.1205116E+3 4.2908480E-1
7.1210116E+3 4.8469126E-1
7.1215115E+3 5.3562391E-1
7.1220115E+3 5.9391682E-1
7.1225115E+3 6.5181371E-1
7.1230114E+3 7.1208515E-1
7.1235114E+3 7.6965865E-1
7.1240114E+3 8.2635857E-1
7.1245113E+3 8.7710110E-1
7.1250113E+3 9.1803545E-1
7.1255113E+3 9.5047295E-1
7.1260112E+3 9.8662250E-1
7.1265112E+3 1.0233376E+0
7.1270111E+3 1.0686570E+0
7.1275111E+3 1.1230356E+0
7.1280111E+3 1.1751969E+0
7.1285110E+3 1.2308635E+0
7.1290110E+3 1.2713737E+0
7.1295110E+3 1.2933104E+0
7.1300109E+3 1.3058982E+0
7.1305109E+3 1.3035951E+0
7.1310109E+3 1.2896801E+0
7.1315108E+3 1.2800730E+0
7.1320108E+3 1.2597228E+0
7.1325108E+3 1.2344180E+0
7.1330107E+3 1.2072793E+0
7.1335107E+3 1.1815550E+0
7.1340107E+3 1.1620713E+0
7.1345106E+3 1.1418719E+0
7.1350106E+3 1.1277250E+0
7.1355106E+3 1.1172613E+0
7.1360105E+3 1.1052988E+0
7.1365105E+3 1.0989815E+0
7.1370104E+3 1.0904723E+0
7.1375104E+3 1.0800394E+0
7.1380104E+3 1.0733302E+0
7.1385103E+3 1.0705176E+0
7.1390103E+3 1.0595004E+0
7.1395103E+3 1.0469840E+0
7.1400102E+3 1.0402306E+0
7.1405102E+3 1.0343986E+0
7.1415101E+3 1.0276185E+0
7.1425101E+3 1.0282789E+0
7.1435100E+3 1.0304542E+0
7.1445099E+3 1.0266269E+0
7.1455099E+3 1.0208888E+0
7.1465098E+3 1.0053052E+0
7.1475097E+3 9.8510865E-1
7.1485096E+3 9.5560688E-1
7.1495096E+3 9.3406207E-1
7.1505095E+3 9.1914477E-1
7.1515094E+3 9.0583879E-1
7.1525094E+3 8.9592698E-1
7.1535093E+3 8.8782360E-1
7.1545092E+3 8.7576932E-1
7.1555092E+3 8.6521200E-1
7.1565091E+3 8.6001515E-1
7.1575090E+3 8.5462019E-1
7.1585089E+3 8.5347243E-1
7.1595089E+3 8.5026414E-1
7.1605088E+3 8.4987340E-1
7.1615087E+3 8.5313833E-1
7.1625087E+3 8.5957208E-1
7.1635086E+3 8.6540324E-1
7.1645085E+3 8.7215159E-1
7.1655085E+3 8.7825467E-1
7.1665084E+3 8.8493591E-1
7.1675083E+3 8.9501045E-1
7.1685082E+3 9.1360057E-1
7.1695082E+3 9.2421295E-1
7.1705081E+3 9.3668385E-1
7.1715080E+3 9.4818139E-1
7.1725080E+3 9.6016389E-1
7.1735079E+3 9.6946969E-1
7.1745078E+3 9.8525356E-1
7.1755077E+3 9.9180967E-1
7.1765077E+3 1.0005794E+0
7.1775076E+3 1.0075582E+0
7.1785075E+3 1.0157157E+0
7.1795075E+3 1.0220583E+0
7.1805074E+3 1.0310907E+0
7.1815073E+3 1.0397522E+0
7.1825073E+3 1.0403987E+0
7.1835072E+3 1.0426759E+0
7.1845071E+3 1.0440212E+0
7.1855070E+3 1.0472453E+0
7.1865070E+3 1.0422122E+0
7.1875069E+3 1.0334096E+0
7.1885068E+3 1.0319363E+0
7.1895068E+3 1.0325079E+0
7.1905067E+3 1.0342835E+0
7.1915066E+3 1.0328521E+0
7.1925066E+3 1.0260909E+0
7.1935065E+3 1.0227690E+0
7.1945064E+3 1.0179671E+0
7.1955063E+3 1.0106744E+0
7.1965063E+3 1.0048278E+0
7.1975062E+3 9.9613655E-1
7.1985061E+3 9.8905195E-1
7.1995061E+3 9.8715298E-1
7.2005060E+3 9.8016739E-1
7.2015059E+3 9.7840257E-1
7.2025058E+3 9.7516023E-1
7.2035058E+3 9.7130052E-1
7.2045057E+3 9.6892242E-1
7.2055056E+3 9.6781177E-1
7.2065056E+3 9.6079403E-1
7.2075055E+3 9.5721299E-1
7.2085054E+3 9.5631250E-1
7.2095054E+3 9.6038973E-1
7.2105053E+3 9.6235442E-1
7.2125051E+3 9.6497308E-1
7.2145050E+3 9.7265897E-1
7.2165049E+3 9.7560889E-1
7.2185047E+3 9.8585605E-1
7.2205046E+3 9.9375889E-1
7.2225044E+3 1.0040906E+0
7.2245043E+3 1.0075564E+0
7.2265042E+3 1.0053794E+0
7.2285040E+3 1.0070627E+0
7.2305039E+3 1.0039866E+0
7.2325037E+3 9.9927742E-1
7.2345036E+3 9.9763083E-1
7.2365034E+3 9.8948909E-1
7.2385033E+3 9.7854596E-1
7.2405032E+3 9.7111746E-1
7.2425030E+3 9.5951250E-1
7.2445029E+3 9.5437110E-1
7.2465027E+3 9.5268794E-1
7.2485026E+3 9.4898868E-1
7.2505025E+3 9.5650434E-1
7.2525023E+3 9.6817269E-1
7.2545022E+3 9.7284344E-1
7.2550021E+3 9.7981799E-1
7.2555021E+3 9.8212015E-1
7.2560021E+3 9.8333288E-1
7.2565020E+3 9.8505040E-1
7.2570020E+3 9.8360823E-1
7.2575020E+3 9.8332668E-1
7.2580019E+3 9.8882125E-1
7.2585019E+3 9.9778330E-1
7.2590018E+3 9.9365942E-1
7.2595018E+3 9.9491896E-1
7.2600018E+3 1.0032153E+0
7.2605017E+3 1.0076230E+0
7.2610017E+3 1.0080046E+0
7.2615017E+3 1.0098978E+0
7.2620016E+3 1.0080320E+0
7.2625016E+3 1.0103529E+0
7.2630016E+3 1.0115519E+0
7.2635015E+3 1.0134598E+0
7.2640015E+3 1.0094538E+0
7.2645015E+3 1.0182924E+0
7.2650014E+3 1.0236157E+0
7.2655014E+3 1.0242996E+0
7.2660013E+3 1.0268931E+0
7.2665013E+3 1.0281082E+0
7.2670013E+3 1.0246220E+0
7.2675012E+3 1.0206988E+0
7.2680012E+3 1.0251122E+0
7.2685012E+3 1.0275329E+0
7.2690011E+3 1.0230220E+0
7.2695011E+3 1.0242434E+0
7.2700011E+3 1.0222810E+0
7.2705010E+3 1.0184409E+0
7.2710010E+3 1.0222772E+0
7.2715010E+3 1.0220478E+0
7.2720009E+3 1.0193791E+0
7.2725009E+3 1.0207996E+0
7.2730008E+3 1.0239711E+0
7.2735008E+3 1.0232855E+0
7.2740008E+3 1.0248051E+0
7.2745007E+3 1.0277881E+0
7.2795004E+3 1.0213468E+0
7.2845000E+3 1.0205882E+0
7.2894997E+3 1.0015577E+0
7.2944993E+3 9.9189511E-1
7.2994990E+3 9.8524469E-1
7.3044986E+3 9.7822458E-1
7.3094982E+3 9.7916435E-1
7.3144979E+3 9.8418215E-1
7.3194975E+3 9.9169788E-1
7.3244972E+3 1.0019037E+0
7.3294968E+3 1.0164739E+0
7.3344964E+3 1.0125720E+0
7.3394961E+3 1.0065510E+0
7.3444957E+3 9.9527934E-1
7.3494954E+3 9.9529076E-1
7.3544950E+3 9.9731324E-1
7.3594947E+3 9.9705449E-1
7.3644943E+3 9.8631018E-1
7.3694939E+3 9.8708895E-1
7.3744936E+3 9.9634071E-1
7.3794932E+3 1.0041943E+0
7.3844928E+3 1.0056218E+0
7.3894925E+3 1.0096581E+0
7.3944921E+3 1.0102908E+0
7.3994918E+3 1.0162906E+0
7.4044914E+3 1.0113636E+0
7.4094910E+3 1.0102302E+0
