#%Name: Ilmenite
#%Formula: Fe2+TiO3
#%Mineral class: oxide
#%Xtal system: trigonal  
#%Edge: K
#%Sample prep: powder on kapton tape
#%Beamline: ALS 10.3.2, HxV slits = 60x20 um
#%Det:  I0=N2, Fluorescence mode (Ge solid state 7elts)
#%Ref/notes:  MRC, CA-USA. XRD confirmed.
#%Temp: Room temp (28C)
#%Time&date: 3:31 AM 1/14/2007
#%Provider: Sirine Fakra, Matthew A. Marcus.
#%============================================================
7.0105192E+3 1.6888709E-3
7.0155189E+3 1.6645286E-3
7.0205185E+3 1.8551335E-3
7.0255182E+3 1.8696594E-3
7.0305178E+3 1.8642563E-3
7.0355175E+3 2.0112362E-3
7.0405172E+3 2.0358531E-3
7.0455168E+3 2.2663363E-3
7.0505165E+3 2.4439665E-3
7.0555161E+3 2.6565212E-3
7.0605158E+3 2.8408384E-3
7.0655154E+3 3.2404623E-3
7.0705151E+3 3.5312605E-3
7.0755147E+3 4.0413094E-3
7.0805144E+3 4.7063559E-3
7.0855140E+3 5.6038288E-3
7.0905137E+3 6.5944636E-3
7.0955133E+3 8.3123498E-3
7.0960133E+3 8.4901219E-3
7.0965133E+3 8.6117124E-3
7.0970132E+3 8.8773319E-3
7.0975132E+3 9.1021119E-3
7.0980132E+3 9.2738581E-3
7.0985131E+3 9.5293438E-3
7.0990131E+3 9.5955650E-3
7.0995131E+3 1.0082122E-2
7.1000130E+3 1.0379662E-2
7.1005130E+3 1.0403080E-2
7.1010130E+3 1.0825466E-2
7.1015129E+3 1.1334572E-2
7.1020129E+3 1.1632364E-2
7.1025129E+3 1.1938608E-2
7.1030128E+3 1.2647571E-2
7.1035128E+3 1.2981228E-2
7.1040128E+3 1.3569523E-2
7.1045127E+3 1.4070706E-2
7.1050127E+3 1.4741081E-2
7.1055126E+3 1.5407545E-2
7.1060126E+3 1.6111297E-2
7.1065126E+3 1.7138061E-2
7.1070125E+3 1.7869945E-2
7.1075125E+3 1.9091201E-2
7.1080125E+3 2.0374109E-2
7.1085124E+3 2.1945781E-2
7.1090124E+3 2.4237733E-2
7.1095124E+3 2.7476678E-2
7.1100123E+3 3.2537402E-2
7.1105123E+3 4.1823929E-2
7.1110123E+3 5.3442284E-2
7.1115122E+3 6.3695362E-2
7.1120122E+3 7.8548117E-2
7.1125122E+3 9.6041954E-2
7.1130121E+3 1.0259659E-1
7.1135121E+3 9.7762404E-2
7.1140121E+3 9.3597627E-2
7.1145120E+3 9.4174368E-2
7.1150120E+3 9.7789216E-2
7.1155119E+3 1.0467287E-1
7.1160119E+3 1.1591468E-1
7.1165119E+3 1.3389737E-1
7.1170118E+3 1.5588904E-1
7.1175118E+3 1.8132269E-1
7.1180118E+3 2.1560555E-1
7.1185117E+3 2.6153513E-1
7.1190117E+3 3.2491477E-1
7.1195117E+3 3.9118510E-1
7.1200116E+3 4.5530063E-1
7.1205116E+3 5.1834584E-1
7.1210116E+3 5.7416986E-1
7.1215115E+3 6.2663228E-1
7.1220115E+3 6.8212531E-1
7.1225115E+3 7.4658480E-1
7.1230114E+3 8.0890933E-1
7.1235114E+3 8.6856608E-1
7.1240114E+3 9.1442038E-1
7.1245113E+3 9.5170763E-1
7.1250113E+3 9.8447152E-1
7.1255113E+3 1.0069337E+0
7.1260112E+3 1.0347624E+0
7.1265112E+3 1.0705503E+0
7.1270111E+3 1.1209051E+0
7.1275111E+3 1.1794564E+0
7.1280111E+3 1.2341072E+0
7.1285110E+3 1.2854213E+0
7.1290110E+3 1.3214193E+0
7.1295110E+3 1.3379844E+0
7.1300109E+3 1.3308779E+0
7.1305109E+3 1.3169474E+0
7.1310109E+3 1.2944157E+0
7.1315108E+3 1.2674092E+0
7.1320108E+3 1.2385443E+0
7.1325108E+3 1.2100800E+0
7.1330107E+3 1.1862184E+0
7.1335107E+3 1.1620710E+0
7.1340107E+3 1.1457213E+0
7.1345106E+3 1.1274364E+0
7.1350106E+3 1.1150121E+0
7.1355106E+3 1.1059030E+0
7.1360105E+3 1.0965011E+0
7.1365105E+3 1.0886801E+0
7.1370104E+3 1.0802290E+0
7.1375104E+3 1.0678326E+0
7.1380104E+3 1.0592104E+0
7.1385103E+3 1.0496660E+0
7.1390103E+3 1.0407540E+0
7.1395103E+3 1.0307137E+0
7.1400102E+3 1.0267368E+0
7.1405102E+3 1.0191345E+0
7.1415101E+3 1.0205357E+0
7.1425101E+3 1.0250264E+0
7.1435100E+3 1.0243605E+0
7.1445099E+3 1.0179590E+0
7.1455099E+3 1.0074408E+0
7.1465098E+3 9.8943924E-1
7.1475097E+3 9.6936082E-1
7.1485096E+3 9.4588806E-1
7.1495096E+3 9.2680590E-1
7.1505095E+3 9.1269908E-1
7.1515094E+3 9.0107454E-1
7.1525094E+3 8.9556998E-1
7.1535093E+3 8.8728821E-1
7.1545092E+3 8.7987158E-1
7.1555092E+3 8.7333504E-1
7.1565091E+3 8.6606858E-1
7.1575090E+3 8.6290114E-1
7.1585089E+3 8.6147770E-1
7.1595089E+3 8.6414362E-1
7.1605088E+3 8.6564534E-1
7.1615087E+3 8.7285975E-1
7.1625087E+3 8.7804852E-1
7.1635086E+3 8.8234211E-1
7.1645085E+3 8.8952699E-1
7.1655085E+3 8.9813315E-1
7.1665084E+3 9.0814638E-1
7.1675083E+3 9.1748506E-1
7.1685082E+3 9.3156923E-1
7.1695082E+3 9.4282122E-1
7.1705081E+3 9.5701331E-1
7.1715080E+3 9.6536104E-1
7.1725080E+3 9.7791452E-1
7.1735079E+3 9.8707768E-1
7.1745078E+3 9.9460929E-1
7.1755077E+3 1.0041164E+0
7.1765077E+3 1.0109770E+0
7.1775076E+3 1.0219589E+0
7.1785075E+3 1.0308797E+0
7.1795075E+3 1.0388732E+0
7.1805074E+3 1.0454720E+0
7.1815073E+3 1.0500723E+0
7.1825073E+3 1.0497582E+0
7.1835072E+3 1.0522174E+0
7.1845071E+3 1.0503953E+0
7.1855070E+3 1.0464015E+0
7.1865070E+3 1.0466197E+0
7.1875069E+3 1.0441759E+0
7.1885068E+3 1.0422036E+0
7.1895068E+3 1.0380838E+0
7.1905067E+3 1.0336467E+0
7.1915066E+3 1.0288694E+0
7.1925066E+3 1.0250821E+0
7.1935065E+3 1.0207883E+0
7.1945064E+3 1.0142696E+0
7.1955063E+3 1.0062633E+0
7.1965063E+3 1.0007322E+0
7.1975062E+3 9.9254685E-1
7.1985061E+3 9.8729037E-1
7.1995061E+3 9.8225794E-1
7.2005060E+3 9.7679445E-1
7.2015059E+3 9.7198528E-1
7.2025058E+3 9.6788125E-1
7.2035058E+3 9.6426115E-1
7.2045057E+3 9.6182040E-1
7.2055056E+3 9.5976409E-1
7.2065056E+3 9.5579137E-1
7.2075055E+3 9.5490422E-1
7.2085054E+3 9.5682672E-1
7.2095054E+3 9.6080464E-1
7.2105053E+3 9.6111615E-1
7.2125051E+3 9.6660646E-1
7.2145050E+3 9.7345540E-1
7.2165049E+3 9.7719418E-1
7.2185047E+3 9.8642035E-1
7.2205046E+3 9.9375940E-1
7.2225044E+3 1.0020142E+0
7.2245043E+3 1.0073904E+0
7.2265042E+3 1.0068859E+0
7.2285040E+3 1.0040223E+0
7.2305039E+3 1.0020057E+0
7.2325037E+3 1.0002955E+0
7.2345036E+3 9.9547125E-1
7.2365034E+3 9.8498641E-1
7.2385033E+3 9.7465216E-1
7.2405032E+3 9.6693262E-1
7.2425030E+3 9.5912195E-1
7.2445029E+3 9.5383680E-1
7.2465027E+3 9.5437231E-1
7.2485026E+3 9.5628168E-1
7.2505025E+3 9.6051552E-1
7.2525023E+3 9.7144560E-1
7.2545022E+3 9.7816840E-1
7.2550021E+3 9.8203112E-1
7.2555021E+3 9.8548030E-1
7.2560021E+3 9.8622443E-1
7.2565020E+3 9.8728312E-1
7.2570020E+3 9.9028594E-1
7.2575020E+3 9.9077445E-1
7.2580019E+3 9.9151109E-1
7.2585019E+3 9.9785507E-1
7.2590018E+3 1.0015147E+0
7.2595018E+3 1.0041419E+0
7.2600018E+3 1.0055046E+0
7.2605017E+3 1.0063563E+0
7.2610017E+3 1.0116943E+0
7.2615017E+3 1.0114740E+0
7.2620016E+3 1.0112241E+0
7.2625016E+3 1.0117346E+0
7.2630016E+3 1.0156554E+0
7.2635015E+3 1.0111448E+0
7.2640015E+3 1.0124769E+0
7.2645015E+3 1.0219148E+0
7.2650014E+3 1.0216796E+0
7.2655014E+3 1.0222755E+0
7.2660013E+3 1.0235626E+0
7.2665013E+3 1.0227129E+0
7.2670013E+3 1.0191303E+0
7.2675012E+3 1.0206747E+0
7.2680012E+3 1.0243874E+0
7.2685012E+3 1.0231814E+0
7.2690011E+3 1.0226221E+0
7.2695011E+3 1.0231853E+0
7.2700011E+3 1.0236348E+0
7.2705010E+3 1.0228399E+0
7.2710010E+3 1.0245253E+0
7.2715010E+3 1.0246096E+0
7.2720009E+3 1.0229973E+0
7.2725009E+3 1.0247891E+0
7.2730008E+3 1.0245561E+0
7.2735008E+3 1.0240395E+0
7.2740008E+3 1.0253709E+0
7.2745007E+3 1.0256086E+0
7.2795004E+3 1.0184454E+0
7.2845000E+3 1.0119396E+0
7.2894997E+3 9.9666742E-1
7.2944993E+3 9.8732774E-1
7.2994990E+3 9.8076416E-1
7.3044986E+3 9.8041595E-1
7.3094982E+3 9.7821820E-1
7.3144979E+3 9.8706669E-1
7.3194975E+3 9.9453293E-1
7.3244972E+3 1.0048276E+0
7.3294968E+3 1.0107907E+0
7.3344964E+3 1.0077336E+0
7.3394961E+3 1.0015679E+0
7.3444957E+3 9.9633247E-1
7.3494954E+3 9.9282517E-1
7.3544950E+3 9.8990891E-1
7.3594947E+3 9.8952445E-1
7.3644943E+3 9.9256576E-1
7.3694939E+3 9.9625362E-1
7.3744936E+3 9.9924240E-1
