#%Name: Metglass 2605SC
#%Formula: Fe81B13.5Si3.5C2
#%Mineral class:  
#%Xtal system:  amorphous    
#%Edge: K
#%Sample prep: none
#%Beamline: ALS 10.3.2, HxV slits = 200x20 um
#%Det:  I0=N2, Fluorescence mode (Ge solid state 7elts)
#%Ref/notes:  glass from Metglas (Metglas.com)
#%Temp: Room temp (28C)
#%Time&date: 12:24 PM 1/16/2007
#%Provider: Matthew A. Marcus.
#%============================================================
7.0107494E+3 1.1005322E-3
7.0157048E+3 1.1271955E-3
7.0207509E+3 1.0763876E-3
7.0261390E+3 1.1258231E-3
7.0307403E+3 1.2051579E-3
7.0356833E+3 1.1801917E-3
7.0404236E+3 1.1377124E-3
7.0457592E+3 1.3304734E-3
7.0511874E+3 1.4511341E-3
7.0557387E+3 1.5380170E-3
7.0605072E+3 1.6259893E-3
7.0657477E+3 1.8959891E-3
7.0704033E+3 2.1199436E-3
7.0757440E+3 2.4826066E-3
7.0804983E+3 2.9047318E-3
7.0857698E+3 3.5756606E-3
7.0907086E+3 4.5310717E-3
7.0955266E+3 6.2543045E-3
7.0962093E+3 6.4149416E-3
7.0967214E+3 6.6311872E-3
7.0971483E+3 6.8902424E-3
7.0977033E+3 7.1614491E-3
7.0983010E+3 7.4800214E-3
7.0987708E+3 7.8573404E-3
7.0992833E+3 8.1234877E-3
7.0998814E+3 8.4063993E-3
7.1001804E+3 8.6489600E-3
7.1006932E+3 9.0245687E-3
7.1012915E+3 9.4921547E-3
7.1017617E+3 1.0049787E-2
7.1021891E+3 1.0524789E-2
7.1027022E+3 1.1081994E-2
7.1032153E+3 1.1776932E-2
7.1037285E+3 1.2477446E-2
7.1041990E+3 1.3335595E-2
7.1047979E+3 1.4349546E-2
7.1053114E+3 1.5592950E-2
7.1057393E+3 1.6846523E-2
7.1062101E+3 1.8734185E-2
7.1067237E+3 2.0843259E-2
7.1071946E+3 2.3434843E-2
7.1077084E+3 2.7038866E-2
7.1082651E+3 3.2220058E-2
7.1086934E+3 3.9671690E-2
7.1091646E+3 5.1562221E-2
7.1097216E+3 7.2953322E-2
7.1102786E+3 1.0855378E-1
7.1107500E+3 1.6188446E-1
7.1113072E+3 2.0676149E-1
7.1117359E+3 2.3525120E-1
7.1122932E+3 2.5631008E-1
7.1127649E+3 2.7413468E-1
7.1131938E+3 2.8669876E-1
7.1137085E+3 2.9882575E-1
7.1142233E+3 3.0979054E-1
7.1147381E+3 3.2092484E-1
7.1152531E+3 3.3534511E-1
7.1157252E+3 3.5233115E-1
7.1162832E+3 3.7097380E-1
7.1167125E+3 3.9515662E-1
7.1173136E+3 4.1999432E-1
7.1177001E+3 4.4495940E-1
7.1183014E+3 4.7440761E-1
7.1187739E+3 5.0258227E-1
7.1192465E+3 5.3297241E-1
7.1198051E+3 5.6692400E-1
7.1201918E+3 5.9788732E-1
7.1207936E+3 6.3258584E-1
7.1212234E+3 6.6925437E-1
7.1217823E+3 7.0179127E-1
7.1222983E+3 7.3883214E-1
7.1227284E+3 7.7572523E-1
7.1232015E+3 8.0951465E-1
7.1237177E+3 8.4227454E-1
7.1241910E+3 8.7128501E-1
7.1247074E+3 9.0138659E-1
7.1253099E+3 9.2793267E-1
7.1257403E+3 9.5010031E-1
7.1262569E+3 9.7016673E-1
7.1267305E+3 9.8540555E-1
7.1272042E+3 9.9878230E-1
7.1277210E+3 1.0078527E+0
7.1282379E+3 1.0134820E+0
7.1287980E+3 1.0172050E+0
7.1291858E+3 1.0181903E+0
7.1297029E+3 1.0178089E+0
7.1302201E+3 1.0158713E+0
7.1307805E+3 1.0135056E+0
7.1312979E+3 1.0101556E+0
7.1317722E+3 1.0069284E+0
7.1322897E+3 1.0038151E+0
7.1327641E+3 1.0007193E+0
7.1332386E+3 9.9822607E-1
7.1337564E+3 9.9573444E-1
7.1341879E+3 9.9423543E-1
7.1347058E+3 9.9250008E-1
7.1353100E+3 9.9172383E-1
7.1356986E+3 9.9112764E-1
7.1362167E+3 9.9079133E-1
7.1366917E+3 9.9097881E-1
7.1372963E+3 9.9128755E-1
7.1377715E+3 9.9165208E-1
7.1382899E+3 9.9195526E-1
7.1387652E+3 9.9192606E-1
7.1391973E+3 9.9215405E-1
7.1397591E+3 9.9239548E-1
7.1401914E+3 9.9240001E-1
7.1407102E+3 9.9245923E-1
7.1417047E+3 9.9194428E-1
7.1427428E+3 9.9124720E-1
7.1437813E+3 9.9110142E-1
7.1448200E+3 9.9107148E-1
7.1458157E+3 9.9192250E-1
7.1468118E+3 9.9348782E-1
7.1477214E+3 9.9602266E-1
7.1487180E+3 9.9912545E-1
7.1497583E+3 1.0031679E+0
7.1506687E+3 1.0074730E+0
7.1517963E+3 1.0123984E+0
7.1527941E+3 1.0167579E+0
7.1537053E+3 1.0208646E+0
7.1547037E+3 1.0245749E+0
7.1557023E+3 1.0271843E+0
7.1567881E+3 1.0289335E+0
7.1577873E+3 1.0296594E+0
7.1588303E+3 1.0286538E+0
7.1597866E+3 1.0266498E+0
7.1606997E+3 1.0227530E+0
7.1617436E+3 1.0179951E+0
7.1627007E+3 1.0121775E+0
7.1637017E+3 1.0058050E+0
7.1648335E+3 9.9863470E-1
7.1657915E+3 9.9185422E-1
7.1667498E+3 9.8536252E-1
7.1677955E+3 9.8026446E-1
7.1687544E+3 9.7589798E-1
7.1698007E+3 9.7298011E-1
7.1707601E+3 9.7123290E-1
7.1718070E+3 9.7051774E-1
7.1728106E+3 9.7066563E-1
7.1737708E+3 9.7141542E-1
7.1746877E+3 9.7206094E-1
7.1757358E+3 9.7361322E-1
7.1766968E+3 9.7532659E-1
7.1777455E+3 9.7750722E-1
7.1788383E+3 9.7938602E-1
7.1798002E+3 9.8199955E-1
7.1807187E+3 9.8486792E-1
7.1817686E+3 9.8783305E-1
7.1826876E+3 9.9048646E-1
7.1837819E+3 9.9377603E-1
7.1847890E+3 9.9664673E-1
7.1857964E+3 9.9957129E-1
7.1868041E+3 1.0024246E+0
7.1877244E+3 1.0050270E+0
7.1886888E+3 1.0078400E+0
7.1897411E+3 1.0100586E+0
7.1907061E+3 1.0121787E+0
7.1918030E+3 1.0144894E+0
7.1928124E+3 1.0162876E+0
7.1937782E+3 1.0181475E+0
7.1947882E+3 1.0198188E+0
7.1957107E+3 1.0211851E+0
7.1968091E+3 1.0227725E+0
7.1976882E+3 1.0240368E+0
7.1987433E+3 1.0251377E+0
7.1997547E+3 1.0263976E+0
7.2007225E+3 1.0274673E+0
7.2017345E+3 1.0279501E+0
7.2027029E+3 1.0283841E+0
7.2037595E+3 1.0288131E+0
7.2046843E+3 1.0292844E+0
7.2058297E+3 1.0297995E+0
7.2067992E+3 1.0296665E+0
7.2078130E+3 1.0300206E+0
7.2087389E+3 1.0295327E+0
7.2097974E+3 1.0290569E+0
7.2107680E+3 1.0286562E+0
7.2127541E+3 1.0271710E+0
7.2146972E+3 1.0246739E+0
7.2166855E+3 1.0215554E+0
7.2187635E+3 1.0178266E+0
7.2207984E+3 1.0136103E+0
7.2227460E+3 1.0085155E+0
7.2247390E+3 1.0036499E+0
7.2267775E+3 9.9867107E-1
7.2287728E+3 9.9402351E-1
7.2307248E+3 9.8995319E-1
7.2327668E+3 9.8649092E-1
7.2348100E+3 9.8475109E-1
7.2367210E+3 9.8338650E-1
7.2387665E+3 9.8401221E-1
7.2407242E+3 9.8536899E-1
7.2427275E+3 9.8757920E-1
7.2447320E+3 9.9075523E-1
7.2467376E+3 9.9432873E-1
7.2487444E+3 9.9826804E-1
7.2507523E+3 1.0020109E+0
7.2527614E+3 1.0061916E+0
7.2547270E+3 1.0099031E+0
7.2552185E+3 1.0106272E+0
7.2557549E+3 1.0116606E+0
7.2562019E+3 1.0124870E+0
7.2567384E+3 1.0133502E+0
7.2571855E+3 1.0143129E+0
7.2577669E+3 1.0153561E+0
7.2582141E+3 1.0157538E+0
7.2587062E+3 1.0165685E+0
7.2591983E+3 1.0174281E+0
7.2596905E+3 1.0178449E+0
7.2601828E+3 1.0181228E+0
7.2606751E+3 1.0190729E+0
7.2612571E+3 1.0194449E+0
7.2617495E+3 1.0199602E+0
7.2622421E+3 1.0206280E+0
7.2627347E+3 1.0209860E+0
7.2632274E+3 1.0216762E+0
7.2637202E+3 1.0222655E+0
7.2642130E+3 1.0227263E+0
7.2647059E+3 1.0228503E+0
7.2651989E+3 1.0237529E+0
7.2656919E+3 1.0235340E+0
7.2661402E+3 1.0239071E+0
7.2667231E+3 1.0243709E+0
7.2672612E+3 1.0244392E+0
7.2677097E+3 1.0247943E+0
7.2682928E+3 1.0252711E+0
7.2687863E+3 1.0252180E+0
7.2691901E+3 1.0254178E+0
7.2697285E+3 1.0256653E+0
7.2702222E+3 1.0258521E+0
7.2707160E+3 1.0257348E+0
7.2712098E+3 1.0261260E+0
7.2717486E+3 1.0260358E+0
7.2721977E+3 1.0259877E+0
7.2726917E+3 1.0260795E+0
7.2731858E+3 1.0259385E+0
7.2736800E+3 1.0259500E+0
7.2742641E+3 1.0257265E+0
7.2747135E+3 1.0258335E+0
7.2797055E+3 1.0229303E+0
7.2847948E+3 1.0187427E+0
7.2893950E+3 1.0127927E+0
7.2947696E+3 1.0077937E+0
7.2994282E+3 1.0015537E+0
7.3047275E+3 9.9839529E-1
7.3094448E+3 9.9572410E-1
7.3147592E+3 9.9549697E-1
7.3197175E+3 9.9633516E-1
7.3247284E+3 9.9805056E-1
7.3294725E+3 9.9977373E-1
7.3347716E+3 1.0023561E+0
7.3393920E+3 1.0042168E+0
7.3447518E+3 1.0060942E+0
7.3497984E+3 1.0069658E+0
7.3548062E+3 1.0075149E+0
7.3597290E+3 1.0071338E+0
7.3647509E+3 1.0064773E+0
7.3694568E+3 1.0047733E+0
7.3747699E+3 1.0035472E+0
7.3794890E+3 1.0007348E+0
7.3847708E+3 9.9964072E-1
7.3894569E+3 9.9724709E-1
7.3947535E+3 9.9630975E-1
7.3993596E+3 9.9530155E-1
7.4047642E+3 9.9519509E-1
7.4094766E+3 9.9486949E-1
7.4147564E+3 9.9550018E-1
