#%Name: Gehlenite
#%Formula: Ca2Al[AlSiO7]
#%Mineral class: silicate
#%Xtal system: Tetragonal 
#%Edge: K
#%Sample prep: powder on kapton tape
#%Beamline: ALS 10.3.2, HxV slits = 100x20 um 
#%Det:  I0=N2, Fluorescence mode (Ge solid state 7elts)
#%Ref/notes:  from MRC, CA-USA. XRD confirmed
#%Temp: Room temp (28C)
#%Time&date: 1:36 PM 1/12/2007. Sirine C. Fakra, Matthew A. Marcus
#%==================================================
7.0107500E+3 1.8107215E-3
7.0157500E+3 1.9224237E-3
7.0207500E+3 1.9842769E-3
7.0257500E+3 1.9515420E-3
7.0307500E+3 2.1791984E-3
7.0357500E+3 2.2096068E-3
7.0407500E+3 2.2384492E-3
7.0457500E+3 2.4049739E-3
7.0507500E+3 2.4768610E-3
7.0557500E+3 2.7688021E-3
7.0607500E+3 3.0665356E-3
7.0657500E+3 3.3209558E-3
7.0707500E+3 3.7153409E-3
7.0757500E+3 4.1622918E-3
7.0807500E+3 4.9909711E-3
7.0857500E+3 5.8926444E-3
7.0907500E+3 6.9991440E-3
7.0957500E+3 8.6380446E-3
7.0962500E+3 8.9582858E-3
7.0967500E+3 9.0946732E-3
7.0972500E+3 9.1167105E-3
7.0977500E+3 9.5079330E-3
7.0982500E+3 9.7841669E-3
7.0987500E+3 1.0075842E-2
7.0992500E+3 1.0163628E-2
7.0997500E+3 1.0328184E-2
7.1002500E+3 1.0776538E-2
7.1007500E+3 1.1203273E-2
7.1012500E+3 1.1490373E-2
7.1017500E+3 1.1768697E-2
7.1022500E+3 1.2287777E-2
7.1027500E+3 1.2857881E-2
7.1032500E+3 1.3303576E-2
7.1037500E+3 1.3832112E-2
7.1042500E+3 1.4248978E-2
7.1047500E+3 1.4821160E-2
7.1052500E+3 1.5504850E-2
7.1057500E+3 1.6228390E-2
7.1062500E+3 1.6862294E-2
7.1067500E+3 1.7793939E-2
7.1072500E+3 1.8547816E-2
7.1077500E+3 1.9748069E-2
7.1082500E+3 2.1007572E-2
7.1087500E+3 2.2822210E-2
7.1092500E+3 2.5101360E-2
7.1097500E+3 2.8540031E-2
7.1102500E+3 3.4746090E-2
7.1107500E+3 4.2605593E-2
7.1112500E+3 4.7992203E-2
7.1117500E+3 5.1232653E-2
7.1122500E+3 5.5387158E-2
7.1127500E+3 6.1703315E-2
7.1132500E+3 6.4604274E-2
7.1137500E+3 6.1328488E-2
7.1142500E+3 5.9454662E-2
7.1147500E+3 6.3618457E-2
7.1152500E+3 7.2480566E-2
7.1157500E+3 8.6099931E-2
7.1162500E+3 1.0710784E-1
7.1167500E+3 1.4623392E-1
7.1172500E+3 2.0289885E-1
7.1177500E+3 2.8977278E-1
7.1182500E+3 3.9083576E-1
7.1187500E+3 4.8982977E-1
7.1192500E+3 5.6716907E-1
7.1197500E+3 6.0730258E-1
7.1202500E+3 6.2690104E-1
7.1207500E+3 6.5357011E-1
7.1212500E+3 7.0388645E-1
7.1217500E+3 7.8542143E-1
7.1222500E+3 9.1451239E-1
7.1227500E+3 1.0768111E+0
7.1232500E+3 1.2726014E+0
7.1237500E+3 1.4443137E+0
7.1242500E+3 1.5685374E+0
7.1247500E+3 1.6411847E+0
7.1252500E+3 1.6597629E+0
7.1257500E+3 1.6560476E+0
7.1262500E+3 1.6534202E+0
7.1267500E+3 1.6411363E+0
7.1272500E+3 1.6064714E+0
7.1277500E+3 1.5563584E+0
7.1282500E+3 1.4782537E+0
7.1287500E+3 1.3787591E+0
7.1292500E+3 1.2848031E+0
7.1297500E+3 1.2060456E+0
7.1302500E+3 1.1518010E+0
7.1307500E+3 1.1107131E+0
7.1312500E+3 1.0814728E+0
7.1317500E+3 1.0673184E+0
7.1322500E+3 1.0559452E+0
7.1327500E+3 1.0415024E+0
7.1332500E+3 1.0226474E+0
7.1337500E+3 1.0055901E+0
7.1342500E+3 9.9013842E-1
7.1347500E+3 9.8119506E-1
7.1352500E+3 9.7758522E-1
7.1357500E+3 9.7505430E-1
7.1362500E+3 9.7856466E-1
7.1367500E+3 9.8461972E-1
7.1372500E+3 9.9533894E-1
7.1377500E+3 1.0099567E+0
7.1382500E+3 1.0172956E+0
7.1387500E+3 1.0175641E+0
7.1392500E+3 1.0089068E+0
7.1397500E+3 9.9964097E-1
7.1402500E+3 9.8920287E-1
7.1407500E+3 9.7796659E-1
7.1417500E+3 9.5897301E-1
7.1427500E+3 9.3804495E-1
7.1437500E+3 9.1090286E-1
7.1447500E+3 8.8022428E-1
7.1457500E+3 8.5398218E-1
7.1467500E+3 8.3165941E-1
7.1477500E+3 8.0923928E-1
7.1487500E+3 7.9084324E-1
7.1497500E+3 7.8451479E-1
7.1507500E+3 7.8816695E-1
7.1517500E+3 8.0022994E-1
7.1527500E+3 8.1828350E-1
7.1537500E+3 8.3841735E-1
7.1547500E+3 8.6038808E-1
7.1557500E+3 8.8309254E-1
7.1567500E+3 9.0846983E-1
7.1577500E+3 9.3353813E-1
7.1587500E+3 9.5924680E-1
7.1597500E+3 9.8428404E-1
7.1607500E+3 1.0098192E+0
7.1617500E+3 1.0357926E+0
7.1627500E+3 1.0572013E+0
7.1637500E+3 1.0738009E+0
7.1647500E+3 1.0849111E+0
7.1657500E+3 1.0897784E+0
7.1667500E+3 1.0934826E+0
7.1677500E+3 1.0893589E+0
7.1687500E+3 1.0839079E+0
7.1697500E+3 1.0788379E+0
7.1707500E+3 1.0734435E+0
7.1717500E+3 1.0683284E+0
7.1727500E+3 1.0620328E+0
7.1737500E+3 1.0541821E+0
7.1747500E+3 1.0470855E+0
7.1757500E+3 1.0392500E+0
7.1767500E+3 1.0325188E+0
7.1777500E+3 1.0283341E+0
7.1787500E+3 1.0264477E+0
7.1797500E+3 1.0248188E+0
7.1807500E+3 1.0252831E+0
7.1817500E+3 1.0235804E+0
7.1827500E+3 1.0225967E+0
7.1837500E+3 1.0217605E+0
7.1847500E+3 1.0191465E+0
7.1857500E+3 1.0159102E+0
7.1867500E+3 1.0123852E+0
7.1877500E+3 1.0037241E+0
7.1887500E+3 9.9471730E-1
7.1897500E+3 9.8225957E-1
7.1907500E+3 9.6978567E-1
7.1917500E+3 9.6135455E-1
7.1927500E+3 9.5788183E-1
7.1937500E+3 9.5501955E-1
7.1947500E+3 9.5129699E-1
7.1957500E+3 9.4827134E-1
7.1967500E+3 9.4713955E-1
7.1977500E+3 9.4666926E-1
7.1987500E+3 9.4900235E-1
7.1997500E+3 9.5133551E-1
7.2007500E+3 9.5159359E-1
7.2017500E+3 9.5470181E-1
7.2027500E+3 9.5674387E-1
7.2037500E+3 9.5996156E-1
7.2047500E+3 9.6325159E-1
7.2057500E+3 9.6844911E-1
7.2067500E+3 9.7443205E-1
7.2077500E+3 9.7803828E-1
7.2087500E+3 9.7884535E-1
7.2097500E+3 9.8062420E-1
7.2107500E+3 9.8226893E-1
7.2127500E+3 9.8656258E-1
7.2147500E+3 9.8871063E-1
7.2167500E+3 9.9312058E-1
7.2187500E+3 9.9830739E-1
7.2207500E+3 9.9877159E-1
7.2227500E+3 9.9705138E-1
7.2247500E+3 9.9662530E-1
7.2267500E+3 9.9633278E-1
7.2287500E+3 9.9924550E-1
7.2307500E+3 1.0019942E+0
7.2327500E+3 1.0041869E+0
7.2347500E+3 1.0057902E+0
7.2367500E+3 1.0104107E+0
7.2387500E+3 1.0095596E+0
7.2407500E+3 1.0130893E+0
7.2427500E+3 1.0145277E+0
7.2447500E+3 1.0159654E+0
7.2467500E+3 1.0154516E+0
7.2487500E+3 1.0134241E+0
7.2507500E+3 1.0122726E+0
7.2527500E+3 1.0112283E+0
7.2547500E+3 1.0070764E+0
7.2552500E+3 1.0076448E+0
7.2557500E+3 1.0087198E+0
7.2562500E+3 1.0073984E+0
7.2567500E+3 1.0096393E+0
7.2572500E+3 1.0077106E+0
7.2577500E+3 1.0054889E+0
7.2582500E+3 1.0053261E+0
7.2587500E+3 1.0053024E+0
7.2592500E+3 1.0073052E+0
7.2597500E+3 1.0045527E+0
7.2602500E+3 1.0045210E+0
7.2607500E+3 1.0029301E+0
7.2612500E+3 1.0053934E+0
7.2617500E+3 1.0043146E+0
7.2622500E+3 1.0050804E+0
7.2627500E+3 1.0022971E+0
7.2632500E+3 9.9955199E-1
7.2637500E+3 9.9767316E-1
7.2642500E+3 1.0012008E+0
7.2647500E+3 1.0015929E+0
7.2652500E+3 1.0012407E+0
7.2657500E+3 1.0030451E+0
7.2662500E+3 1.0030855E+0
7.2667500E+3 1.0040245E+0
7.2672500E+3 1.0027342E+0
7.2677500E+3 1.0011568E+0
7.2682500E+3 1.0007164E+0
7.2687500E+3 1.0008619E+0
7.2692500E+3 1.0015477E+0
7.2697500E+3 1.0015652E+0
7.2702500E+3 1.0013781E+0
7.2707500E+3 1.0017401E+0
7.2712500E+3 1.0025414E+0
7.2717500E+3 1.0001271E+0
7.2722500E+3 1.0007159E+0
7.2727500E+3 9.9974550E-1
7.2732500E+3 9.9950160E-1
7.2737500E+3 1.0001054E+0
7.2742500E+3 1.0013565E+0
7.2747500E+3 1.0017734E+0
7.2797500E+3 9.9119795E-1
7.2847500E+3 9.9037300E-1
7.2897500E+3 9.9578586E-1
7.2947500E+3 1.0005657E+0
7.2997500E+3 9.9798516E-1
7.3047500E+3 9.9499416E-1
7.3097500E+3 9.8829172E-1
7.3147500E+3 9.8636266E-1
7.3197500E+3 9.9277325E-1
7.3247500E+3 9.9672666E-1
7.3297500E+3 1.0037931E+0
7.3347500E+3 1.0055270E+0
7.3397500E+3 1.0099086E+0
7.3447500E+3 1.0070847E+0
7.3497500E+3 1.0045644E+0
7.3547500E+3 1.0023126E+0
7.3597500E+3 9.9947872E-1
7.3647500E+3 9.9760337E-1
7.3697500E+3 9.9356240E-1
